TEFAME - Toolbox para Elemento Finitos y Analisis
         Matricial de Estructuras en MATLAB

-------------------------------------------------------------------------------
Propiedades de entrada modelo
-------------------------------------------------------------------------------

Nodos:
	Numero de nodos: 6
	Nodo N1: 0          0         
	Nodo N2: 0          2.0000    
	Nodo N3: 2.0000     0         
	Nodo N4: 2.0000     2.0000    
	Nodo N5: 4.0000     0         
	Nodo N6: 4.0000     2.0000    

Elementos:
	Numero de elementos: 2
	Membrana MEM1:
		Ancho (2b):		2
		Alto (2h):		2
		Espesor (t):	1
		E:				2000
		v:				0.2
	Membrana MEM2:
		Ancho (2b):		2
		Alto (2h):		2
		Espesor (t):	1
		E:				2000
		v:				0.2

-------------------------------------------------------------------------------
Resultados del analisis
-------------------------------------------------------------------------------

Desplazamientos nodos:
	Nodo N1: 0          0         
	Nodo N2: 0.2692     -0.2131   
	Nodo N3: 0          -0.7346   
	Nodo N4: 0          -0.9477   
	Nodo N5: 0          0         
	Nodo N6: -0.2692    -0.2131   

Reacciones:
	Nodo N1: 369.1589   500.0000  
	Nodo N2: 0          0         
	Nodo N3: 0          0         
	Nodo N4: 0          0         
	Nodo N5: -369.1589  500.0000  
	Nodo N6: 0          0         

Esfuerzos Elementos:
	Membrana MEM1:
		Nodo 1 (-b, -h): 369.1589  	500.0000  
		Nodo 2 (+b, -h): 130.8411  	-0.0000   
		Nodo 3 (+b, +h): -500.0000 	-500.0000 
		Nodo 4 (-b, +h): -0.0000   	0.0000    
		Tensiones MEM1 [GLOBALX GLOBALY X Y SIGMAX SIGMAY SIGMAXY DESPLX DESPLY]:
			0.0000    	0.0000    	-1.0000   	-1.0000   	-44.3925  	-221.9626 	-193.9252 	0.0000    	0.0000    
			0.0000    	0.1250    	-1.0000   	-0.8750   	-61.9159  	-225.4673 	-193.9252 	0.0168    	-0.0133   
			0.0000    	0.2500    	-1.0000   	-0.7500   	-79.4393  	-228.9720 	-193.9252 	0.0336    	-0.0266   
			0.0000    	0.3750    	-1.0000   	-0.6250   	-96.9626  	-232.4766 	-193.9252 	0.0505    	-0.0400   
			0.0000    	0.5000    	-1.0000   	-0.5000   	-114.4860 	-235.9813 	-193.9252 	0.0673    	-0.0533   
			0.0000    	0.6250    	-1.0000   	-0.3750   	-132.0093 	-239.4860 	-193.9252 	0.0841    	-0.0666   
			0.0000    	0.7500    	-1.0000   	-0.2500   	-149.5327 	-242.9907 	-193.9252 	0.1009    	-0.0799   
			0.0000    	0.8750    	-1.0000   	-0.1250   	-167.0561 	-246.4953 	-193.9252 	0.1178    	-0.0932   
			0.0000    	1.0000    	-1.0000   	0.0000    	-184.5794 	-250.0000 	-193.9252 	0.1346    	-0.1065   
			0.0000    	1.1250    	-1.0000   	0.1250    	-202.1028 	-253.5047 	-193.9252 	0.1514    	-0.1199   
			0.0000    	1.2500    	-1.0000   	0.2500    	-219.6262 	-257.0093 	-193.9252 	0.1682    	-0.1332   
			0.0000    	1.3750    	-1.0000   	0.3750    	-237.1495 	-260.5140 	-193.9252 	0.1850    	-0.1465   
			0.0000    	1.5000    	-1.0000   	0.5000    	-254.6729 	-264.0187 	-193.9252 	0.2019    	-0.1598   
			0.0000    	1.6250    	-1.0000   	0.6250    	-272.1963 	-267.5234 	-193.9252 	0.2187    	-0.1731   
			0.0000    	1.7500    	-1.0000   	0.7500    	-289.7196 	-271.0280 	-193.9252 	0.2355    	-0.1864   
			0.0000    	1.8750    	-1.0000   	0.8750    	-307.2430 	-274.5327 	-193.9252 	0.2523    	-0.1998   
			0.0000    	2.0000    	-1.0000   	1.0000    	-324.7664 	-278.0374 	-193.9252 	0.2692    	-0.2131   
			0.1250    	0.0000    	-0.8750   	-1.0000   	-44.3925  	-221.9626 	-200.9346 	0.0000    	-0.0459   
			0.1250    	0.1250    	-0.8750   	-0.8750   	-61.9159  	-225.4673 	-200.9346 	0.0158    	-0.0592   
			0.1250    	0.2500    	-0.8750   	-0.7500   	-79.4393  	-228.9720 	-200.9346 	0.0315    	-0.0725   
			0.1250    	0.3750    	-0.8750   	-0.6250   	-96.9626  	-232.4766 	-200.9346 	0.0473    	-0.0859   
			0.1250    	0.5000    	-0.8750   	-0.5000   	-114.4860 	-235.9813 	-200.9346 	0.0631    	-0.0992   
			0.1250    	0.6250    	-0.8750   	-0.3750   	-132.0093 	-239.4860 	-200.9346 	0.0789    	-0.1125   
			0.1250    	0.7500    	-0.8750   	-0.2500   	-149.5327 	-242.9907 	-200.9346 	0.0946    	-0.1258   
			0.1250    	0.8750    	-0.8750   	-0.1250   	-167.0561 	-246.4953 	-200.9346 	0.1104    	-0.1391   
			0.1250    	1.0000    	-0.8750   	0.0000    	-184.5794 	-250.0000 	-200.9346 	0.1262    	-0.1525   
			0.1250    	1.1250    	-0.8750   	0.1250    	-202.1028 	-253.5047 	-200.9346 	0.1419    	-0.1658   
			0.1250    	1.2500    	-0.8750   	0.2500    	-219.6262 	-257.0093 	-200.9346 	0.1577    	-0.1791   
			0.1250    	1.3750    	-0.8750   	0.3750    	-237.1495 	-260.5140 	-200.9346 	0.1735    	-0.1924   
			0.1250    	1.5000    	-0.8750   	0.5000    	-254.6729 	-264.0187 	-200.9346 	0.1893    	-0.2057   
			0.1250    	1.6250    	-0.8750   	0.6250    	-272.1963 	-267.5234 	-200.9346 	0.2050    	-0.2190   
			0.1250    	1.7500    	-0.8750   	0.7500    	-289.7196 	-271.0280 	-200.9346 	0.2208    	-0.2324   
			0.1250    	1.8750    	-0.8750   	0.8750    	-307.2430 	-274.5327 	-200.9346 	0.2366    	-0.2457   
			0.1250    	2.0000    	-0.8750   	1.0000    	-324.7664 	-278.0374 	-200.9346 	0.2523    	-0.2590   
			0.2500    	0.0000    	-0.7500   	-1.0000   	-44.3925  	-221.9626 	-207.9439 	0.0000    	-0.0918   
			0.2500    	0.1250    	-0.7500   	-0.8750   	-61.9159  	-225.4673 	-207.9439 	0.0147    	-0.1051   
			0.2500    	0.2500    	-0.7500   	-0.7500   	-79.4393  	-228.9720 	-207.9439 	0.0294    	-0.1185   
			0.2500    	0.3750    	-0.7500   	-0.6250   	-96.9626  	-232.4766 	-207.9439 	0.0442    	-0.1318   
			0.2500    	0.5000    	-0.7500   	-0.5000   	-114.4860 	-235.9813 	-207.9439 	0.0589    	-0.1451   
			0.2500    	0.6250    	-0.7500   	-0.3750   	-132.0093 	-239.4860 	-207.9439 	0.0736    	-0.1584   
			0.2500    	0.7500    	-0.7500   	-0.2500   	-149.5327 	-242.9907 	-207.9439 	0.0883    	-0.1717   
			0.2500    	0.8750    	-0.7500   	-0.1250   	-167.0561 	-246.4953 	-207.9439 	0.1030    	-0.1850   
			0.2500    	1.0000    	-0.7500   	0.0000    	-184.5794 	-250.0000 	-207.9439 	0.1178    	-0.1984   
			0.2500    	1.1250    	-0.7500   	0.1250    	-202.1028 	-253.5047 	-207.9439 	0.1325    	-0.2117   
			0.2500    	1.2500    	-0.7500   	0.2500    	-219.6262 	-257.0093 	-207.9439 	0.1472    	-0.2250   
			0.2500    	1.3750    	-0.7500   	0.3750    	-237.1495 	-260.5140 	-207.9439 	0.1619    	-0.2383   
			0.2500    	1.5000    	-0.7500   	0.5000    	-254.6729 	-264.0187 	-207.9439 	0.1766    	-0.2516   
			0.2500    	1.6250    	-0.7500   	0.6250    	-272.1963 	-267.5234 	-207.9439 	0.1914    	-0.2650   
			0.2500    	1.7500    	-0.7500   	0.7500    	-289.7196 	-271.0280 	-207.9439 	0.2061    	-0.2783   
			0.2500    	1.8750    	-0.7500   	0.8750    	-307.2430 	-274.5327 	-207.9439 	0.2208    	-0.2916   
			0.2500    	2.0000    	-0.7500   	1.0000    	-324.7664 	-278.0374 	-207.9439 	0.2355    	-0.3049   
			0.3750    	0.0000    	-0.6250   	-1.0000   	-44.3925  	-221.9626 	-214.9533 	0.0000    	-0.1377   
			0.3750    	0.1250    	-0.6250   	-0.8750   	-61.9159  	-225.4673 	-214.9533 	0.0137    	-0.1511   
			0.3750    	0.2500    	-0.6250   	-0.7500   	-79.4393  	-228.9720 	-214.9533 	0.0273    	-0.1644   
			0.3750    	0.3750    	-0.6250   	-0.6250   	-96.9626  	-232.4766 	-214.9533 	0.0410    	-0.1777   
			0.3750    	0.5000    	-0.6250   	-0.5000   	-114.4860 	-235.9813 	-214.9533 	0.0547    	-0.1910   
			0.3750    	0.6250    	-0.6250   	-0.3750   	-132.0093 	-239.4860 	-214.9533 	0.0683    	-0.2043   
			0.3750    	0.7500    	-0.6250   	-0.2500   	-149.5327 	-242.9907 	-214.9533 	0.0820    	-0.2176   
			0.3750    	0.8750    	-0.6250   	-0.1250   	-167.0561 	-246.4953 	-214.9533 	0.0957    	-0.2310   
			0.3750    	1.0000    	-0.6250   	0.0000    	-184.5794 	-250.0000 	-214.9533 	0.1093    	-0.2443   
			0.3750    	1.1250    	-0.6250   	0.1250    	-202.1028 	-253.5047 	-214.9533 	0.1230    	-0.2576   
			0.3750    	1.2500    	-0.6250   	0.2500    	-219.6262 	-257.0093 	-214.9533 	0.1367    	-0.2709   
			0.3750    	1.3750    	-0.6250   	0.3750    	-237.1495 	-260.5140 	-214.9533 	0.1504    	-0.2842   
			0.3750    	1.5000    	-0.6250   	0.5000    	-254.6729 	-264.0187 	-214.9533 	0.1640    	-0.2975   
			0.3750    	1.6250    	-0.6250   	0.6250    	-272.1963 	-267.5234 	-214.9533 	0.1777    	-0.3109   
			0.3750    	1.7500    	-0.6250   	0.7500    	-289.7196 	-271.0280 	-214.9533 	0.1914    	-0.3242   
			0.3750    	1.8750    	-0.6250   	0.8750    	-307.2430 	-274.5327 	-214.9533 	0.2050    	-0.3375   
			0.3750    	2.0000    	-0.6250   	1.0000    	-324.7664 	-278.0374 	-214.9533 	0.2187    	-0.3508   
			0.5000    	0.0000    	-0.5000   	-1.0000   	-44.3925  	-221.9626 	-221.9626 	0.0000    	-0.1836   
			0.5000    	0.1250    	-0.5000   	-0.8750   	-61.9159  	-225.4673 	-221.9626 	0.0126    	-0.1970   
			0.5000    	0.2500    	-0.5000   	-0.7500   	-79.4393  	-228.9720 	-221.9626 	0.0252    	-0.2103   
			0.5000    	0.3750    	-0.5000   	-0.6250   	-96.9626  	-232.4766 	-221.9626 	0.0379    	-0.2236   
			0.5000    	0.5000    	-0.5000   	-0.5000   	-114.4860 	-235.9813 	-221.9626 	0.0505    	-0.2369   
			0.5000    	0.6250    	-0.5000   	-0.3750   	-132.0093 	-239.4860 	-221.9626 	0.0631    	-0.2502   
			0.5000    	0.7500    	-0.5000   	-0.2500   	-149.5327 	-242.9907 	-221.9626 	0.0757    	-0.2636   
			0.5000    	0.8750    	-0.5000   	-0.1250   	-167.0561 	-246.4953 	-221.9626 	0.0883    	-0.2769   
			0.5000    	1.0000    	-0.5000   	0.0000    	-184.5794 	-250.0000 	-221.9626 	0.1009    	-0.2902   
			0.5000    	1.1250    	-0.5000   	0.1250    	-202.1028 	-253.5047 	-221.9626 	0.1136    	-0.3035   
			0.5000    	1.2500    	-0.5000   	0.2500    	-219.6262 	-257.0093 	-221.9626 	0.1262    	-0.3168   
			0.5000    	1.3750    	-0.5000   	0.3750    	-237.1495 	-260.5140 	-221.9626 	0.1388    	-0.3301   
			0.5000    	1.5000    	-0.5000   	0.5000    	-254.6729 	-264.0187 	-221.9626 	0.1514    	-0.3435   
			0.5000    	1.6250    	-0.5000   	0.6250    	-272.1963 	-267.5234 	-221.9626 	0.1640    	-0.3568   
			0.5000    	1.7500    	-0.5000   	0.7500    	-289.7196 	-271.0280 	-221.9626 	0.1766    	-0.3701   
			0.5000    	1.8750    	-0.5000   	0.8750    	-307.2430 	-274.5327 	-221.9626 	0.1893    	-0.3834   
			0.5000    	2.0000    	-0.5000   	1.0000    	-324.7664 	-278.0374 	-221.9626 	0.2019    	-0.3967   
			0.6250    	0.0000    	-0.3750   	-1.0000   	-44.3925  	-221.9626 	-228.9720 	0.0000    	-0.2296   
			0.6250    	0.1250    	-0.3750   	-0.8750   	-61.9159  	-225.4673 	-228.9720 	0.0116    	-0.2429   
			0.6250    	0.2500    	-0.3750   	-0.7500   	-79.4393  	-228.9720 	-228.9720 	0.0231    	-0.2562   
			0.6250    	0.3750    	-0.3750   	-0.6250   	-96.9626  	-232.4766 	-228.9720 	0.0347    	-0.2695   
			0.6250    	0.5000    	-0.3750   	-0.5000   	-114.4860 	-235.9813 	-228.9720 	0.0463    	-0.2828   
			0.6250    	0.6250    	-0.3750   	-0.3750   	-132.0093 	-239.4860 	-228.9720 	0.0578    	-0.2961   
			0.6250    	0.7500    	-0.3750   	-0.2500   	-149.5327 	-242.9907 	-228.9720 	0.0694    	-0.3095   
			0.6250    	0.8750    	-0.3750   	-0.1250   	-167.0561 	-246.4953 	-228.9720 	0.0810    	-0.3228   
			0.6250    	1.0000    	-0.3750   	0.0000    	-184.5794 	-250.0000 	-228.9720 	0.0925    	-0.3361   
			0.6250    	1.1250    	-0.3750   	0.1250    	-202.1028 	-253.5047 	-228.9720 	0.1041    	-0.3494   
			0.6250    	1.2500    	-0.3750   	0.2500    	-219.6262 	-257.0093 	-228.9720 	0.1157    	-0.3627   
			0.6250    	1.3750    	-0.3750   	0.3750    	-237.1495 	-260.5140 	-228.9720 	0.1272    	-0.3761   
			0.6250    	1.5000    	-0.3750   	0.5000    	-254.6729 	-264.0187 	-228.9720 	0.1388    	-0.3894   
			0.6250    	1.6250    	-0.3750   	0.6250    	-272.1963 	-267.5234 	-228.9720 	0.1504    	-0.4027   
			0.6250    	1.7500    	-0.3750   	0.7500    	-289.7196 	-271.0280 	-228.9720 	0.1619    	-0.4160   
			0.6250    	1.8750    	-0.3750   	0.8750    	-307.2430 	-274.5327 	-228.9720 	0.1735    	-0.4293   
			0.6250    	2.0000    	-0.3750   	1.0000    	-324.7664 	-278.0374 	-228.9720 	0.1850    	-0.4426   
			0.7500    	0.0000    	-0.2500   	-1.0000   	-44.3925  	-221.9626 	-235.9813 	0.0000    	-0.2755   
			0.7500    	0.1250    	-0.2500   	-0.8750   	-61.9159  	-225.4673 	-235.9813 	0.0105    	-0.2888   
			0.7500    	0.2500    	-0.2500   	-0.7500   	-79.4393  	-228.9720 	-235.9813 	0.0210    	-0.3021   
			0.7500    	0.3750    	-0.2500   	-0.6250   	-96.9626  	-232.4766 	-235.9813 	0.0315    	-0.3154   
			0.7500    	0.5000    	-0.2500   	-0.5000   	-114.4860 	-235.9813 	-235.9813 	0.0421    	-0.3287   
			0.7500    	0.6250    	-0.2500   	-0.3750   	-132.0093 	-239.4860 	-235.9813 	0.0526    	-0.3421   
			0.7500    	0.7500    	-0.2500   	-0.2500   	-149.5327 	-242.9907 	-235.9813 	0.0631    	-0.3554   
			0.7500    	0.8750    	-0.2500   	-0.1250   	-167.0561 	-246.4953 	-235.9813 	0.0736    	-0.3687   
			0.7500    	1.0000    	-0.2500   	0.0000    	-184.5794 	-250.0000 	-235.9813 	0.0841    	-0.3820   
			0.7500    	1.1250    	-0.2500   	0.1250    	-202.1028 	-253.5047 	-235.9813 	0.0946    	-0.3953   
			0.7500    	1.2500    	-0.2500   	0.2500    	-219.6262 	-257.0093 	-235.9813 	0.1051    	-0.4086   
			0.7500    	1.3750    	-0.2500   	0.3750    	-237.1495 	-260.5140 	-235.9813 	0.1157    	-0.4220   
			0.7500    	1.5000    	-0.2500   	0.5000    	-254.6729 	-264.0187 	-235.9813 	0.1262    	-0.4353   
			0.7500    	1.6250    	-0.2500   	0.6250    	-272.1963 	-267.5234 	-235.9813 	0.1367    	-0.4486   
			0.7500    	1.7500    	-0.2500   	0.7500    	-289.7196 	-271.0280 	-235.9813 	0.1472    	-0.4619   
			0.7500    	1.8750    	-0.2500   	0.8750    	-307.2430 	-274.5327 	-235.9813 	0.1577    	-0.4752   
			0.7500    	2.0000    	-0.2500   	1.0000    	-324.7664 	-278.0374 	-235.9813 	0.1682    	-0.4886   
			0.8750    	0.0000    	-0.1250   	-1.0000   	-44.3925  	-221.9626 	-242.9907 	0.0000    	-0.3214   
			0.8750    	0.1250    	-0.1250   	-0.8750   	-61.9159  	-225.4673 	-242.9907 	0.0095    	-0.3347   
			0.8750    	0.2500    	-0.1250   	-0.7500   	-79.4393  	-228.9720 	-242.9907 	0.0189    	-0.3480   
			0.8750    	0.3750    	-0.1250   	-0.6250   	-96.9626  	-232.4766 	-242.9907 	0.0284    	-0.3613   
			0.8750    	0.5000    	-0.1250   	-0.5000   	-114.4860 	-235.9813 	-242.9907 	0.0379    	-0.3746   
			0.8750    	0.6250    	-0.1250   	-0.3750   	-132.0093 	-239.4860 	-242.9907 	0.0473    	-0.3880   
			0.8750    	0.7500    	-0.1250   	-0.2500   	-149.5327 	-242.9907 	-242.9907 	0.0568    	-0.4013   
			0.8750    	0.8750    	-0.1250   	-0.1250   	-167.0561 	-246.4953 	-242.9907 	0.0662    	-0.4146   
			0.8750    	1.0000    	-0.1250   	0.0000    	-184.5794 	-250.0000 	-242.9907 	0.0757    	-0.4279   
			0.8750    	1.1250    	-0.1250   	0.1250    	-202.1028 	-253.5047 	-242.9907 	0.0852    	-0.4412   
			0.8750    	1.2500    	-0.1250   	0.2500    	-219.6262 	-257.0093 	-242.9907 	0.0946    	-0.4546   
			0.8750    	1.3750    	-0.1250   	0.3750    	-237.1495 	-260.5140 	-242.9907 	0.1041    	-0.4679   
			0.8750    	1.5000    	-0.1250   	0.5000    	-254.6729 	-264.0187 	-242.9907 	0.1136    	-0.4812   
			0.8750    	1.6250    	-0.1250   	0.6250    	-272.1963 	-267.5234 	-242.9907 	0.1230    	-0.4945   
			0.8750    	1.7500    	-0.1250   	0.7500    	-289.7196 	-271.0280 	-242.9907 	0.1325    	-0.5078   
			0.8750    	1.8750    	-0.1250   	0.8750    	-307.2430 	-274.5327 	-242.9907 	0.1419    	-0.5211   
			0.8750    	2.0000    	-0.1250   	1.0000    	-324.7664 	-278.0374 	-242.9907 	0.1514    	-0.5345   
			1.0000    	0.0000    	0.0000    	-1.0000   	-44.3925  	-221.9626 	-250.0000 	0.0000    	-0.3673   
			1.0000    	0.1250    	0.0000    	-0.8750   	-61.9159  	-225.4673 	-250.0000 	0.0084    	-0.3806   
			1.0000    	0.2500    	0.0000    	-0.7500   	-79.4393  	-228.9720 	-250.0000 	0.0168    	-0.3939   
			1.0000    	0.3750    	0.0000    	-0.6250   	-96.9626  	-232.4766 	-250.0000 	0.0252    	-0.4072   
			1.0000    	0.5000    	0.0000    	-0.5000   	-114.4860 	-235.9813 	-250.0000 	0.0336    	-0.4206   
			1.0000    	0.6250    	0.0000    	-0.3750   	-132.0093 	-239.4860 	-250.0000 	0.0421    	-0.4339   
			1.0000    	0.7500    	0.0000    	-0.2500   	-149.5327 	-242.9907 	-250.0000 	0.0505    	-0.4472   
			1.0000    	0.8750    	0.0000    	-0.1250   	-167.0561 	-246.4953 	-250.0000 	0.0589    	-0.4605   
			1.0000    	1.0000    	0.0000    	0.0000    	-184.5794 	-250.0000 	-250.0000 	0.0673    	-0.4738   
			1.0000    	1.1250    	0.0000    	0.1250    	-202.1028 	-253.5047 	-250.0000 	0.0757    	-0.4871   
			1.0000    	1.2500    	0.0000    	0.2500    	-219.6262 	-257.0093 	-250.0000 	0.0841    	-0.5005   
			1.0000    	1.3750    	0.0000    	0.3750    	-237.1495 	-260.5140 	-250.0000 	0.0925    	-0.5138   
			1.0000    	1.5000    	0.0000    	0.5000    	-254.6729 	-264.0187 	-250.0000 	0.1009    	-0.5271   
			1.0000    	1.6250    	0.0000    	0.6250    	-272.1963 	-267.5234 	-250.0000 	0.1093    	-0.5404   
			1.0000    	1.7500    	0.0000    	0.7500    	-289.7196 	-271.0280 	-250.0000 	0.1178    	-0.5537   
			1.0000    	1.8750    	0.0000    	0.8750    	-307.2430 	-274.5327 	-250.0000 	0.1262    	-0.5671   
			1.0000    	2.0000    	0.0000    	1.0000    	-324.7664 	-278.0374 	-250.0000 	0.1346    	-0.5804   
			1.1250    	0.0000    	0.1250    	-1.0000   	-44.3925  	-221.9626 	-257.0093 	0.0000    	-0.4132   
			1.1250    	0.1250    	0.1250    	-0.8750   	-61.9159  	-225.4673 	-257.0093 	0.0074    	-0.4265   
			1.1250    	0.2500    	0.1250    	-0.7500   	-79.4393  	-228.9720 	-257.0093 	0.0147    	-0.4398   
			1.1250    	0.3750    	0.1250    	-0.6250   	-96.9626  	-232.4766 	-257.0093 	0.0221    	-0.4532   
			1.1250    	0.5000    	0.1250    	-0.5000   	-114.4860 	-235.9813 	-257.0093 	0.0294    	-0.4665   
			1.1250    	0.6250    	0.1250    	-0.3750   	-132.0093 	-239.4860 	-257.0093 	0.0368    	-0.4798   
			1.1250    	0.7500    	0.1250    	-0.2500   	-149.5327 	-242.9907 	-257.0093 	0.0442    	-0.4931   
			1.1250    	0.8750    	0.1250    	-0.1250   	-167.0561 	-246.4953 	-257.0093 	0.0515    	-0.5064   
			1.1250    	1.0000    	0.1250    	0.0000    	-184.5794 	-250.0000 	-257.0093 	0.0589    	-0.5197   
			1.1250    	1.1250    	0.1250    	0.1250    	-202.1028 	-253.5047 	-257.0093 	0.0662    	-0.5331   
			1.1250    	1.2500    	0.1250    	0.2500    	-219.6262 	-257.0093 	-257.0093 	0.0736    	-0.5464   
			1.1250    	1.3750    	0.1250    	0.3750    	-237.1495 	-260.5140 	-257.0093 	0.0810    	-0.5597   
			1.1250    	1.5000    	0.1250    	0.5000    	-254.6729 	-264.0187 	-257.0093 	0.0883    	-0.5730   
			1.1250    	1.6250    	0.1250    	0.6250    	-272.1963 	-267.5234 	-257.0093 	0.0957    	-0.5863   
			1.1250    	1.7500    	0.1250    	0.7500    	-289.7196 	-271.0280 	-257.0093 	0.1030    	-0.5996   
			1.1250    	1.8750    	0.1250    	0.8750    	-307.2430 	-274.5327 	-257.0093 	0.1104    	-0.6130   
			1.1250    	2.0000    	0.1250    	1.0000    	-324.7664 	-278.0374 	-257.0093 	0.1178    	-0.6263   
			1.2500    	0.0000    	0.2500    	-1.0000   	-44.3925  	-221.9626 	-264.0187 	0.0000    	-0.4591   
			1.2500    	0.1250    	0.2500    	-0.8750   	-61.9159  	-225.4673 	-264.0187 	0.0063    	-0.4724   
			1.2500    	0.2500    	0.2500    	-0.7500   	-79.4393  	-228.9720 	-264.0187 	0.0126    	-0.4857   
			1.2500    	0.3750    	0.2500    	-0.6250   	-96.9626  	-232.4766 	-264.0187 	0.0189    	-0.4991   
			1.2500    	0.5000    	0.2500    	-0.5000   	-114.4860 	-235.9813 	-264.0187 	0.0252    	-0.5124   
			1.2500    	0.6250    	0.2500    	-0.3750   	-132.0093 	-239.4860 	-264.0187 	0.0315    	-0.5257   
			1.2500    	0.7500    	0.2500    	-0.2500   	-149.5327 	-242.9907 	-264.0187 	0.0379    	-0.5390   
			1.2500    	0.8750    	0.2500    	-0.1250   	-167.0561 	-246.4953 	-264.0187 	0.0442    	-0.5523   
			1.2500    	1.0000    	0.2500    	0.0000    	-184.5794 	-250.0000 	-264.0187 	0.0505    	-0.5657   
			1.2500    	1.1250    	0.2500    	0.1250    	-202.1028 	-253.5047 	-264.0187 	0.0568    	-0.5790   
			1.2500    	1.2500    	0.2500    	0.2500    	-219.6262 	-257.0093 	-264.0187 	0.0631    	-0.5923   
			1.2500    	1.3750    	0.2500    	0.3750    	-237.1495 	-260.5140 	-264.0187 	0.0694    	-0.6056   
			1.2500    	1.5000    	0.2500    	0.5000    	-254.6729 	-264.0187 	-264.0187 	0.0757    	-0.6189   
			1.2500    	1.6250    	0.2500    	0.6250    	-272.1963 	-267.5234 	-264.0187 	0.0820    	-0.6322   
			1.2500    	1.7500    	0.2500    	0.7500    	-289.7196 	-271.0280 	-264.0187 	0.0883    	-0.6456   
			1.2500    	1.8750    	0.2500    	0.8750    	-307.2430 	-274.5327 	-264.0187 	0.0946    	-0.6589   
			1.2500    	2.0000    	0.2500    	1.0000    	-324.7664 	-278.0374 	-264.0187 	0.1009    	-0.6722   
			1.3750    	0.0000    	0.3750    	-1.0000   	-44.3925  	-221.9626 	-271.0280 	0.0000    	-0.5050   
			1.3750    	0.1250    	0.3750    	-0.8750   	-61.9159  	-225.4673 	-271.0280 	0.0053    	-0.5183   
			1.3750    	0.2500    	0.3750    	-0.7500   	-79.4393  	-228.9720 	-271.0280 	0.0105    	-0.5317   
			1.3750    	0.3750    	0.3750    	-0.6250   	-96.9626  	-232.4766 	-271.0280 	0.0158    	-0.5450   
			1.3750    	0.5000    	0.3750    	-0.5000   	-114.4860 	-235.9813 	-271.0280 	0.0210    	-0.5583   
			1.3750    	0.6250    	0.3750    	-0.3750   	-132.0093 	-239.4860 	-271.0280 	0.0263    	-0.5716   
			1.3750    	0.7500    	0.3750    	-0.2500   	-149.5327 	-242.9907 	-271.0280 	0.0315    	-0.5849   
			1.3750    	0.8750    	0.3750    	-0.1250   	-167.0561 	-246.4953 	-271.0280 	0.0368    	-0.5982   
			1.3750    	1.0000    	0.3750    	0.0000    	-184.5794 	-250.0000 	-271.0280 	0.0421    	-0.6116   
			1.3750    	1.1250    	0.3750    	0.1250    	-202.1028 	-253.5047 	-271.0280 	0.0473    	-0.6249   
			1.3750    	1.2500    	0.3750    	0.2500    	-219.6262 	-257.0093 	-271.0280 	0.0526    	-0.6382   
			1.3750    	1.3750    	0.3750    	0.3750    	-237.1495 	-260.5140 	-271.0280 	0.0578    	-0.6515   
			1.3750    	1.5000    	0.3750    	0.5000    	-254.6729 	-264.0187 	-271.0280 	0.0631    	-0.6648   
			1.3750    	1.6250    	0.3750    	0.6250    	-272.1963 	-267.5234 	-271.0280 	0.0683    	-0.6782   
			1.3750    	1.7500    	0.3750    	0.7500    	-289.7196 	-271.0280 	-271.0280 	0.0736    	-0.6915   
			1.3750    	1.8750    	0.3750    	0.8750    	-307.2430 	-274.5327 	-271.0280 	0.0789    	-0.7048   
			1.3750    	2.0000    	0.3750    	1.0000    	-324.7664 	-278.0374 	-271.0280 	0.0841    	-0.7181   
			1.5000    	0.0000    	0.5000    	-1.0000   	-44.3925  	-221.9626 	-278.0374 	0.0000    	-0.5509   
			1.5000    	0.1250    	0.5000    	-0.8750   	-61.9159  	-225.4673 	-278.0374 	0.0042    	-0.5643   
			1.5000    	0.2500    	0.5000    	-0.7500   	-79.4393  	-228.9720 	-278.0374 	0.0084    	-0.5776   
			1.5000    	0.3750    	0.5000    	-0.6250   	-96.9626  	-232.4766 	-278.0374 	0.0126    	-0.5909   
			1.5000    	0.5000    	0.5000    	-0.5000   	-114.4860 	-235.9813 	-278.0374 	0.0168    	-0.6042   
			1.5000    	0.6250    	0.5000    	-0.3750   	-132.0093 	-239.4860 	-278.0374 	0.0210    	-0.6175   
			1.5000    	0.7500    	0.5000    	-0.2500   	-149.5327 	-242.9907 	-278.0374 	0.0252    	-0.6308   
			1.5000    	0.8750    	0.5000    	-0.1250   	-167.0561 	-246.4953 	-278.0374 	0.0294    	-0.6442   
			1.5000    	1.0000    	0.5000    	0.0000    	-184.5794 	-250.0000 	-278.0374 	0.0336    	-0.6575   
			1.5000    	1.1250    	0.5000    	0.1250    	-202.1028 	-253.5047 	-278.0374 	0.0379    	-0.6708   
			1.5000    	1.2500    	0.5000    	0.2500    	-219.6262 	-257.0093 	-278.0374 	0.0421    	-0.6841   
			1.5000    	1.3750    	0.5000    	0.3750    	-237.1495 	-260.5140 	-278.0374 	0.0463    	-0.6974   
			1.5000    	1.5000    	0.5000    	0.5000    	-254.6729 	-264.0187 	-278.0374 	0.0505    	-0.7107   
			1.5000    	1.6250    	0.5000    	0.6250    	-272.1963 	-267.5234 	-278.0374 	0.0547    	-0.7241   
			1.5000    	1.7500    	0.5000    	0.7500    	-289.7196 	-271.0280 	-278.0374 	0.0589    	-0.7374   
			1.5000    	1.8750    	0.5000    	0.8750    	-307.2430 	-274.5327 	-278.0374 	0.0631    	-0.7507   
			1.5000    	2.0000    	0.5000    	1.0000    	-324.7664 	-278.0374 	-278.0374 	0.0673    	-0.7640   
			1.6250    	0.0000    	0.6250    	-1.0000   	-44.3925  	-221.9626 	-285.0467 	0.0000    	-0.5968   
			1.6250    	0.1250    	0.6250    	-0.8750   	-61.9159  	-225.4673 	-285.0467 	0.0032    	-0.6102   
			1.6250    	0.2500    	0.6250    	-0.7500   	-79.4393  	-228.9720 	-285.0467 	0.0063    	-0.6235   
			1.6250    	0.3750    	0.6250    	-0.6250   	-96.9626  	-232.4766 	-285.0467 	0.0095    	-0.6368   
			1.6250    	0.5000    	0.6250    	-0.5000   	-114.4860 	-235.9813 	-285.0467 	0.0126    	-0.6501   
			1.6250    	0.6250    	0.6250    	-0.3750   	-132.0093 	-239.4860 	-285.0467 	0.0158    	-0.6634   
			1.6250    	0.7500    	0.6250    	-0.2500   	-149.5327 	-242.9907 	-285.0467 	0.0189    	-0.6768   
			1.6250    	0.8750    	0.6250    	-0.1250   	-167.0561 	-246.4953 	-285.0467 	0.0221    	-0.6901   
			1.6250    	1.0000    	0.6250    	0.0000    	-184.5794 	-250.0000 	-285.0467 	0.0252    	-0.7034   
			1.6250    	1.1250    	0.6250    	0.1250    	-202.1028 	-253.5047 	-285.0467 	0.0284    	-0.7167   
			1.6250    	1.2500    	0.6250    	0.2500    	-219.6262 	-257.0093 	-285.0467 	0.0315    	-0.7300   
			1.6250    	1.3750    	0.6250    	0.3750    	-237.1495 	-260.5140 	-285.0467 	0.0347    	-0.7433   
			1.6250    	1.5000    	0.6250    	0.5000    	-254.6729 	-264.0187 	-285.0467 	0.0379    	-0.7567   
			1.6250    	1.6250    	0.6250    	0.6250    	-272.1963 	-267.5234 	-285.0467 	0.0410    	-0.7700   
			1.6250    	1.7500    	0.6250    	0.7500    	-289.7196 	-271.0280 	-285.0467 	0.0442    	-0.7833   
			1.6250    	1.8750    	0.6250    	0.8750    	-307.2430 	-274.5327 	-285.0467 	0.0473    	-0.7966   
			1.6250    	2.0000    	0.6250    	1.0000    	-324.7664 	-278.0374 	-285.0467 	0.0505    	-0.8099   
			1.7500    	0.0000    	0.7500    	-1.0000   	-44.3925  	-221.9626 	-292.0561 	0.0000    	-0.6428   
			1.7500    	0.1250    	0.7500    	-0.8750   	-61.9159  	-225.4673 	-292.0561 	0.0021    	-0.6561   
			1.7500    	0.2500    	0.7500    	-0.7500   	-79.4393  	-228.9720 	-292.0561 	0.0042    	-0.6694   
			1.7500    	0.3750    	0.7500    	-0.6250   	-96.9626  	-232.4766 	-292.0561 	0.0063    	-0.6827   
			1.7500    	0.5000    	0.7500    	-0.5000   	-114.4860 	-235.9813 	-292.0561 	0.0084    	-0.6960   
			1.7500    	0.6250    	0.7500    	-0.3750   	-132.0093 	-239.4860 	-292.0561 	0.0105    	-0.7093   
			1.7500    	0.7500    	0.7500    	-0.2500   	-149.5327 	-242.9907 	-292.0561 	0.0126    	-0.7227   
			1.7500    	0.8750    	0.7500    	-0.1250   	-167.0561 	-246.4953 	-292.0561 	0.0147    	-0.7360   
			1.7500    	1.0000    	0.7500    	0.0000    	-184.5794 	-250.0000 	-292.0561 	0.0168    	-0.7493   
			1.7500    	1.1250    	0.7500    	0.1250    	-202.1028 	-253.5047 	-292.0561 	0.0189    	-0.7626   
			1.7500    	1.2500    	0.7500    	0.2500    	-219.6262 	-257.0093 	-292.0561 	0.0210    	-0.7759   
			1.7500    	1.3750    	0.7500    	0.3750    	-237.1495 	-260.5140 	-292.0561 	0.0231    	-0.7893   
			1.7500    	1.5000    	0.7500    	0.5000    	-254.6729 	-264.0187 	-292.0561 	0.0252    	-0.8026   
			1.7500    	1.6250    	0.7500    	0.6250    	-272.1963 	-267.5234 	-292.0561 	0.0273    	-0.8159   
			1.7500    	1.7500    	0.7500    	0.7500    	-289.7196 	-271.0280 	-292.0561 	0.0294    	-0.8292   
			1.7500    	1.8750    	0.7500    	0.8750    	-307.2430 	-274.5327 	-292.0561 	0.0315    	-0.8425   
			1.7500    	2.0000    	0.7500    	1.0000    	-324.7664 	-278.0374 	-292.0561 	0.0336    	-0.8558   
			1.8750    	0.0000    	0.8750    	-1.0000   	-44.3925  	-221.9626 	-299.0654 	0.0000    	-0.6887   
			1.8750    	0.1250    	0.8750    	-0.8750   	-61.9159  	-225.4673 	-299.0654 	0.0011    	-0.7020   
			1.8750    	0.2500    	0.8750    	-0.7500   	-79.4393  	-228.9720 	-299.0654 	0.0021    	-0.7153   
			1.8750    	0.3750    	0.8750    	-0.6250   	-96.9626  	-232.4766 	-299.0654 	0.0032    	-0.7286   
			1.8750    	0.5000    	0.8750    	-0.5000   	-114.4860 	-235.9813 	-299.0654 	0.0042    	-0.7419   
			1.8750    	0.6250    	0.8750    	-0.3750   	-132.0093 	-239.4860 	-299.0654 	0.0053    	-0.7553   
			1.8750    	0.7500    	0.8750    	-0.2500   	-149.5327 	-242.9907 	-299.0654 	0.0063    	-0.7686   
			1.8750    	0.8750    	0.8750    	-0.1250   	-167.0561 	-246.4953 	-299.0654 	0.0074    	-0.7819   
			1.8750    	1.0000    	0.8750    	0.0000    	-184.5794 	-250.0000 	-299.0654 	0.0084    	-0.7952   
			1.8750    	1.1250    	0.8750    	0.1250    	-202.1028 	-253.5047 	-299.0654 	0.0095    	-0.8085   
			1.8750    	1.2500    	0.8750    	0.2500    	-219.6262 	-257.0093 	-299.0654 	0.0105    	-0.8218   
			1.8750    	1.3750    	0.8750    	0.3750    	-237.1495 	-260.5140 	-299.0654 	0.0116    	-0.8352   
			1.8750    	1.5000    	0.8750    	0.5000    	-254.6729 	-264.0187 	-299.0654 	0.0126    	-0.8485   
			1.8750    	1.6250    	0.8750    	0.6250    	-272.1963 	-267.5234 	-299.0654 	0.0137    	-0.8618   
			1.8750    	1.7500    	0.8750    	0.7500    	-289.7196 	-271.0280 	-299.0654 	0.0147    	-0.8751   
			1.8750    	1.8750    	0.8750    	0.8750    	-307.2430 	-274.5327 	-299.0654 	0.0158    	-0.8884   
			1.8750    	2.0000    	0.8750    	1.0000    	-324.7664 	-278.0374 	-299.0654 	0.0168    	-0.9018   
			2.0000    	0.0000    	1.0000    	-1.0000   	-44.3925  	-221.9626 	-306.0748 	0.0000    	-0.7346   
			2.0000    	0.1250    	1.0000    	-0.8750   	-61.9159  	-225.4673 	-306.0748 	0.0000    	-0.7479   
			2.0000    	0.2500    	1.0000    	-0.7500   	-79.4393  	-228.9720 	-306.0748 	0.0000    	-0.7612   
			2.0000    	0.3750    	1.0000    	-0.6250   	-96.9626  	-232.4766 	-306.0748 	0.0000    	-0.7745   
			2.0000    	0.5000    	1.0000    	-0.5000   	-114.4860 	-235.9813 	-306.0748 	0.0000    	-0.7879   
			2.0000    	0.6250    	1.0000    	-0.3750   	-132.0093 	-239.4860 	-306.0748 	-0.0000   	-0.8012   
			2.0000    	0.7500    	1.0000    	-0.2500   	-149.5327 	-242.9907 	-306.0748 	-0.0000   	-0.8145   
			2.0000    	0.8750    	1.0000    	-0.1250   	-167.0561 	-246.4953 	-306.0748 	-0.0000   	-0.8278   
			2.0000    	1.0000    	1.0000    	0.0000    	-184.5794 	-250.0000 	-306.0748 	-0.0000   	-0.8411   
			2.0000    	1.1250    	1.0000    	0.1250    	-202.1028 	-253.5047 	-306.0748 	-0.0000   	-0.8544   
			2.0000    	1.2500    	1.0000    	0.2500    	-219.6262 	-257.0093 	-306.0748 	-0.0000   	-0.8678   
			2.0000    	1.3750    	1.0000    	0.3750    	-237.1495 	-260.5140 	-306.0748 	-0.0000   	-0.8811   
			2.0000    	1.5000    	1.0000    	0.5000    	-254.6729 	-264.0187 	-306.0748 	-0.0000   	-0.8944   
			2.0000    	1.6250    	1.0000    	0.6250    	-272.1963 	-267.5234 	-306.0748 	-0.0000   	-0.9077   
			2.0000    	1.7500    	1.0000    	0.7500    	-289.7196 	-271.0280 	-306.0748 	-0.0000   	-0.9210   
			2.0000    	1.8750    	1.0000    	0.8750    	-307.2430 	-274.5327 	-306.0748 	-0.0000   	-0.9343   
			2.0000    	2.0000    	1.0000    	1.0000    	-324.7664 	-278.0374 	-306.0748 	-0.0000   	-0.9477   
	Membrana MEM2:
		Nodo 1 (-b, -h): -130.8411 	0.0000    
		Nodo 2 (+b, -h): -369.1589 	500.0000  
		Nodo 3 (+b, +h): 0.0000    	-0.0000   
		Nodo 4 (-b, +h): 500.0000  	-500.0000 
		Tensiones MEM2 [GLOBALX GLOBALY X Y SIGMAX SIGMAY SIGMAXY DESPLX DESPLY]:
			2.0000    	0.0000    	-1.0000   	-1.0000   	-44.3925  	-221.9626 	306.0748  	0.0000    	-0.7346   
			2.0000    	0.1250    	-1.0000   	-0.8750   	-61.9159  	-225.4673 	306.0748  	0.0000    	-0.7479   
			2.0000    	0.2500    	-1.0000   	-0.7500   	-79.4393  	-228.9720 	306.0748  	0.0000    	-0.7612   
			2.0000    	0.3750    	-1.0000   	-0.6250   	-96.9626  	-232.4766 	306.0748  	0.0000    	-0.7745   
			2.0000    	0.5000    	-1.0000   	-0.5000   	-114.4860 	-235.9813 	306.0748  	0.0000    	-0.7879   
			2.0000    	0.6250    	-1.0000   	-0.3750   	-132.0093 	-239.4860 	306.0748  	-0.0000   	-0.8012   
			2.0000    	0.7500    	-1.0000   	-0.2500   	-149.5327 	-242.9907 	306.0748  	-0.0000   	-0.8145   
			2.0000    	0.8750    	-1.0000   	-0.1250   	-167.0561 	-246.4953 	306.0748  	-0.0000   	-0.8278   
			2.0000    	1.0000    	-1.0000   	0.0000    	-184.5794 	-250.0000 	306.0748  	-0.0000   	-0.8411   
			2.0000    	1.1250    	-1.0000   	0.1250    	-202.1028 	-253.5047 	306.0748  	-0.0000   	-0.8544   
			2.0000    	1.2500    	-1.0000   	0.2500    	-219.6262 	-257.0093 	306.0748  	-0.0000   	-0.8678   
			2.0000    	1.3750    	-1.0000   	0.3750    	-237.1495 	-260.5140 	306.0748  	-0.0000   	-0.8811   
			2.0000    	1.5000    	-1.0000   	0.5000    	-254.6729 	-264.0187 	306.0748  	-0.0000   	-0.8944   
			2.0000    	1.6250    	-1.0000   	0.6250    	-272.1963 	-267.5234 	306.0748  	-0.0000   	-0.9077   
			2.0000    	1.7500    	-1.0000   	0.7500    	-289.7196 	-271.0280 	306.0748  	-0.0000   	-0.9210   
			2.0000    	1.8750    	-1.0000   	0.8750    	-307.2430 	-274.5327 	306.0748  	-0.0000   	-0.9343   
			2.0000    	2.0000    	-1.0000   	1.0000    	-324.7664 	-278.0374 	306.0748  	-0.0000   	-0.9477   
			2.1250    	0.0000    	-0.8750   	-1.0000   	-44.3925  	-221.9626 	299.0654  	0.0000    	-0.6887   
			2.1250    	0.1250    	-0.8750   	-0.8750   	-61.9159  	-225.4673 	299.0654  	-0.0011   	-0.7020   
			2.1250    	0.2500    	-0.8750   	-0.7500   	-79.4393  	-228.9720 	299.0654  	-0.0021   	-0.7153   
			2.1250    	0.3750    	-0.8750   	-0.6250   	-96.9626  	-232.4766 	299.0654  	-0.0032   	-0.7286   
			2.1250    	0.5000    	-0.8750   	-0.5000   	-114.4860 	-235.9813 	299.0654  	-0.0042   	-0.7419   
			2.1250    	0.6250    	-0.8750   	-0.3750   	-132.0093 	-239.4860 	299.0654  	-0.0053   	-0.7553   
			2.1250    	0.7500    	-0.8750   	-0.2500   	-149.5327 	-242.9907 	299.0654  	-0.0063   	-0.7686   
			2.1250    	0.8750    	-0.8750   	-0.1250   	-167.0561 	-246.4953 	299.0654  	-0.0074   	-0.7819   
			2.1250    	1.0000    	-0.8750   	0.0000    	-184.5794 	-250.0000 	299.0654  	-0.0084   	-0.7952   
			2.1250    	1.1250    	-0.8750   	0.1250    	-202.1028 	-253.5047 	299.0654  	-0.0095   	-0.8085   
			2.1250    	1.2500    	-0.8750   	0.2500    	-219.6262 	-257.0093 	299.0654  	-0.0105   	-0.8218   
			2.1250    	1.3750    	-0.8750   	0.3750    	-237.1495 	-260.5140 	299.0654  	-0.0116   	-0.8352   
			2.1250    	1.5000    	-0.8750   	0.5000    	-254.6729 	-264.0187 	299.0654  	-0.0126   	-0.8485   
			2.1250    	1.6250    	-0.8750   	0.6250    	-272.1963 	-267.5234 	299.0654  	-0.0137   	-0.8618   
			2.1250    	1.7500    	-0.8750   	0.7500    	-289.7196 	-271.0280 	299.0654  	-0.0147   	-0.8751   
			2.1250    	1.8750    	-0.8750   	0.8750    	-307.2430 	-274.5327 	299.0654  	-0.0158   	-0.8884   
			2.1250    	2.0000    	-0.8750   	1.0000    	-324.7664 	-278.0374 	299.0654  	-0.0168   	-0.9018   
			2.2500    	0.0000    	-0.7500   	-1.0000   	-44.3925  	-221.9626 	292.0561  	0.0000    	-0.6428   
			2.2500    	0.1250    	-0.7500   	-0.8750   	-61.9159  	-225.4673 	292.0561  	-0.0021   	-0.6561   
			2.2500    	0.2500    	-0.7500   	-0.7500   	-79.4393  	-228.9720 	292.0561  	-0.0042   	-0.6694   
			2.2500    	0.3750    	-0.7500   	-0.6250   	-96.9626  	-232.4766 	292.0561  	-0.0063   	-0.6827   
			2.2500    	0.5000    	-0.7500   	-0.5000   	-114.4860 	-235.9813 	292.0561  	-0.0084   	-0.6960   
			2.2500    	0.6250    	-0.7500   	-0.3750   	-132.0093 	-239.4860 	292.0561  	-0.0105   	-0.7093   
			2.2500    	0.7500    	-0.7500   	-0.2500   	-149.5327 	-242.9907 	292.0561  	-0.0126   	-0.7227   
			2.2500    	0.8750    	-0.7500   	-0.1250   	-167.0561 	-246.4953 	292.0561  	-0.0147   	-0.7360   
			2.2500    	1.0000    	-0.7500   	0.0000    	-184.5794 	-250.0000 	292.0561  	-0.0168   	-0.7493   
			2.2500    	1.1250    	-0.7500   	0.1250    	-202.1028 	-253.5047 	292.0561  	-0.0189   	-0.7626   
			2.2500    	1.2500    	-0.7500   	0.2500    	-219.6262 	-257.0093 	292.0561  	-0.0210   	-0.7759   
			2.2500    	1.3750    	-0.7500   	0.3750    	-237.1495 	-260.5140 	292.0561  	-0.0231   	-0.7893   
			2.2500    	1.5000    	-0.7500   	0.5000    	-254.6729 	-264.0187 	292.0561  	-0.0252   	-0.8026   
			2.2500    	1.6250    	-0.7500   	0.6250    	-272.1963 	-267.5234 	292.0561  	-0.0273   	-0.8159   
			2.2500    	1.7500    	-0.7500   	0.7500    	-289.7196 	-271.0280 	292.0561  	-0.0294   	-0.8292   
			2.2500    	1.8750    	-0.7500   	0.8750    	-307.2430 	-274.5327 	292.0561  	-0.0315   	-0.8425   
			2.2500    	2.0000    	-0.7500   	1.0000    	-324.7664 	-278.0374 	292.0561  	-0.0336   	-0.8558   
			2.3750    	0.0000    	-0.6250   	-1.0000   	-44.3925  	-221.9626 	285.0467  	0.0000    	-0.5968   
			2.3750    	0.1250    	-0.6250   	-0.8750   	-61.9159  	-225.4673 	285.0467  	-0.0032   	-0.6102   
			2.3750    	0.2500    	-0.6250   	-0.7500   	-79.4393  	-228.9720 	285.0467  	-0.0063   	-0.6235   
			2.3750    	0.3750    	-0.6250   	-0.6250   	-96.9626  	-232.4766 	285.0467  	-0.0095   	-0.6368   
			2.3750    	0.5000    	-0.6250   	-0.5000   	-114.4860 	-235.9813 	285.0467  	-0.0126   	-0.6501   
			2.3750    	0.6250    	-0.6250   	-0.3750   	-132.0093 	-239.4860 	285.0467  	-0.0158   	-0.6634   
			2.3750    	0.7500    	-0.6250   	-0.2500   	-149.5327 	-242.9907 	285.0467  	-0.0189   	-0.6768   
			2.3750    	0.8750    	-0.6250   	-0.1250   	-167.0561 	-246.4953 	285.0467  	-0.0221   	-0.6901   
			2.3750    	1.0000    	-0.6250   	0.0000    	-184.5794 	-250.0000 	285.0467  	-0.0252   	-0.7034   
			2.3750    	1.1250    	-0.6250   	0.1250    	-202.1028 	-253.5047 	285.0467  	-0.0284   	-0.7167   
			2.3750    	1.2500    	-0.6250   	0.2500    	-219.6262 	-257.0093 	285.0467  	-0.0315   	-0.7300   
			2.3750    	1.3750    	-0.6250   	0.3750    	-237.1495 	-260.5140 	285.0467  	-0.0347   	-0.7433   
			2.3750    	1.5000    	-0.6250   	0.5000    	-254.6729 	-264.0187 	285.0467  	-0.0379   	-0.7567   
			2.3750    	1.6250    	-0.6250   	0.6250    	-272.1963 	-267.5234 	285.0467  	-0.0410   	-0.7700   
			2.3750    	1.7500    	-0.6250   	0.7500    	-289.7196 	-271.0280 	285.0467  	-0.0442   	-0.7833   
			2.3750    	1.8750    	-0.6250   	0.8750    	-307.2430 	-274.5327 	285.0467  	-0.0473   	-0.7966   
			2.3750    	2.0000    	-0.6250   	1.0000    	-324.7664 	-278.0374 	285.0467  	-0.0505   	-0.8099   
			2.5000    	0.0000    	-0.5000   	-1.0000   	-44.3925  	-221.9626 	278.0374  	0.0000    	-0.5509   
			2.5000    	0.1250    	-0.5000   	-0.8750   	-61.9159  	-225.4673 	278.0374  	-0.0042   	-0.5643   
			2.5000    	0.2500    	-0.5000   	-0.7500   	-79.4393  	-228.9720 	278.0374  	-0.0084   	-0.5776   
			2.5000    	0.3750    	-0.5000   	-0.6250   	-96.9626  	-232.4766 	278.0374  	-0.0126   	-0.5909   
			2.5000    	0.5000    	-0.5000   	-0.5000   	-114.4860 	-235.9813 	278.0374  	-0.0168   	-0.6042   
			2.5000    	0.6250    	-0.5000   	-0.3750   	-132.0093 	-239.4860 	278.0374  	-0.0210   	-0.6175   
			2.5000    	0.7500    	-0.5000   	-0.2500   	-149.5327 	-242.9907 	278.0374  	-0.0252   	-0.6308   
			2.5000    	0.8750    	-0.5000   	-0.1250   	-167.0561 	-246.4953 	278.0374  	-0.0294   	-0.6442   
			2.5000    	1.0000    	-0.5000   	0.0000    	-184.5794 	-250.0000 	278.0374  	-0.0336   	-0.6575   
			2.5000    	1.1250    	-0.5000   	0.1250    	-202.1028 	-253.5047 	278.0374  	-0.0379   	-0.6708   
			2.5000    	1.2500    	-0.5000   	0.2500    	-219.6262 	-257.0093 	278.0374  	-0.0421   	-0.6841   
			2.5000    	1.3750    	-0.5000   	0.3750    	-237.1495 	-260.5140 	278.0374  	-0.0463   	-0.6974   
			2.5000    	1.5000    	-0.5000   	0.5000    	-254.6729 	-264.0187 	278.0374  	-0.0505   	-0.7107   
			2.5000    	1.6250    	-0.5000   	0.6250    	-272.1963 	-267.5234 	278.0374  	-0.0547   	-0.7241   
			2.5000    	1.7500    	-0.5000   	0.7500    	-289.7196 	-271.0280 	278.0374  	-0.0589   	-0.7374   
			2.5000    	1.8750    	-0.5000   	0.8750    	-307.2430 	-274.5327 	278.0374  	-0.0631   	-0.7507   
			2.5000    	2.0000    	-0.5000   	1.0000    	-324.7664 	-278.0374 	278.0374  	-0.0673   	-0.7640   
			2.6250    	0.0000    	-0.3750   	-1.0000   	-44.3925  	-221.9626 	271.0280  	0.0000    	-0.5050   
			2.6250    	0.1250    	-0.3750   	-0.8750   	-61.9159  	-225.4673 	271.0280  	-0.0053   	-0.5183   
			2.6250    	0.2500    	-0.3750   	-0.7500   	-79.4393  	-228.9720 	271.0280  	-0.0105   	-0.5317   
			2.6250    	0.3750    	-0.3750   	-0.6250   	-96.9626  	-232.4766 	271.0280  	-0.0158   	-0.5450   
			2.6250    	0.5000    	-0.3750   	-0.5000   	-114.4860 	-235.9813 	271.0280  	-0.0210   	-0.5583   
			2.6250    	0.6250    	-0.3750   	-0.3750   	-132.0093 	-239.4860 	271.0280  	-0.0263   	-0.5716   
			2.6250    	0.7500    	-0.3750   	-0.2500   	-149.5327 	-242.9907 	271.0280  	-0.0315   	-0.5849   
			2.6250    	0.8750    	-0.3750   	-0.1250   	-167.0561 	-246.4953 	271.0280  	-0.0368   	-0.5982   
			2.6250    	1.0000    	-0.3750   	0.0000    	-184.5794 	-250.0000 	271.0280  	-0.0421   	-0.6116   
			2.6250    	1.1250    	-0.3750   	0.1250    	-202.1028 	-253.5047 	271.0280  	-0.0473   	-0.6249   
			2.6250    	1.2500    	-0.3750   	0.2500    	-219.6262 	-257.0093 	271.0280  	-0.0526   	-0.6382   
			2.6250    	1.3750    	-0.3750   	0.3750    	-237.1495 	-260.5140 	271.0280  	-0.0578   	-0.6515   
			2.6250    	1.5000    	-0.3750   	0.5000    	-254.6729 	-264.0187 	271.0280  	-0.0631   	-0.6648   
			2.6250    	1.6250    	-0.3750   	0.6250    	-272.1963 	-267.5234 	271.0280  	-0.0683   	-0.6782   
			2.6250    	1.7500    	-0.3750   	0.7500    	-289.7196 	-271.0280 	271.0280  	-0.0736   	-0.6915   
			2.6250    	1.8750    	-0.3750   	0.8750    	-307.2430 	-274.5327 	271.0280  	-0.0789   	-0.7048   
			2.6250    	2.0000    	-0.3750   	1.0000    	-324.7664 	-278.0374 	271.0280  	-0.0841   	-0.7181   
			2.7500    	0.0000    	-0.2500   	-1.0000   	-44.3925  	-221.9626 	264.0187  	0.0000    	-0.4591   
			2.7500    	0.1250    	-0.2500   	-0.8750   	-61.9159  	-225.4673 	264.0187  	-0.0063   	-0.4724   
			2.7500    	0.2500    	-0.2500   	-0.7500   	-79.4393  	-228.9720 	264.0187  	-0.0126   	-0.4857   
			2.7500    	0.3750    	-0.2500   	-0.6250   	-96.9626  	-232.4766 	264.0187  	-0.0189   	-0.4991   
			2.7500    	0.5000    	-0.2500   	-0.5000   	-114.4860 	-235.9813 	264.0187  	-0.0252   	-0.5124   
			2.7500    	0.6250    	-0.2500   	-0.3750   	-132.0093 	-239.4860 	264.0187  	-0.0315   	-0.5257   
			2.7500    	0.7500    	-0.2500   	-0.2500   	-149.5327 	-242.9907 	264.0187  	-0.0379   	-0.5390   
			2.7500    	0.8750    	-0.2500   	-0.1250   	-167.0561 	-246.4953 	264.0187  	-0.0442   	-0.5523   
			2.7500    	1.0000    	-0.2500   	0.0000    	-184.5794 	-250.0000 	264.0187  	-0.0505   	-0.5657   
			2.7500    	1.1250    	-0.2500   	0.1250    	-202.1028 	-253.5047 	264.0187  	-0.0568   	-0.5790   
			2.7500    	1.2500    	-0.2500   	0.2500    	-219.6262 	-257.0093 	264.0187  	-0.0631   	-0.5923   
			2.7500    	1.3750    	-0.2500   	0.3750    	-237.1495 	-260.5140 	264.0187  	-0.0694   	-0.6056   
			2.7500    	1.5000    	-0.2500   	0.5000    	-254.6729 	-264.0187 	264.0187  	-0.0757   	-0.6189   
			2.7500    	1.6250    	-0.2500   	0.6250    	-272.1963 	-267.5234 	264.0187  	-0.0820   	-0.6322   
			2.7500    	1.7500    	-0.2500   	0.7500    	-289.7196 	-271.0280 	264.0187  	-0.0883   	-0.6456   
			2.7500    	1.8750    	-0.2500   	0.8750    	-307.2430 	-274.5327 	264.0187  	-0.0946   	-0.6589   
			2.7500    	2.0000    	-0.2500   	1.0000    	-324.7664 	-278.0374 	264.0187  	-0.1009   	-0.6722   
			2.8750    	0.0000    	-0.1250   	-1.0000   	-44.3925  	-221.9626 	257.0093  	0.0000    	-0.4132   
			2.8750    	0.1250    	-0.1250   	-0.8750   	-61.9159  	-225.4673 	257.0093  	-0.0074   	-0.4265   
			2.8750    	0.2500    	-0.1250   	-0.7500   	-79.4393  	-228.9720 	257.0093  	-0.0147   	-0.4398   
			2.8750    	0.3750    	-0.1250   	-0.6250   	-96.9626  	-232.4766 	257.0093  	-0.0221   	-0.4532   
			2.8750    	0.5000    	-0.1250   	-0.5000   	-114.4860 	-235.9813 	257.0093  	-0.0294   	-0.4665   
			2.8750    	0.6250    	-0.1250   	-0.3750   	-132.0093 	-239.4860 	257.0093  	-0.0368   	-0.4798   
			2.8750    	0.7500    	-0.1250   	-0.2500   	-149.5327 	-242.9907 	257.0093  	-0.0442   	-0.4931   
			2.8750    	0.8750    	-0.1250   	-0.1250   	-167.0561 	-246.4953 	257.0093  	-0.0515   	-0.5064   
			2.8750    	1.0000    	-0.1250   	0.0000    	-184.5794 	-250.0000 	257.0093  	-0.0589   	-0.5197   
			2.8750    	1.1250    	-0.1250   	0.1250    	-202.1028 	-253.5047 	257.0093  	-0.0662   	-0.5331   
			2.8750    	1.2500    	-0.1250   	0.2500    	-219.6262 	-257.0093 	257.0093  	-0.0736   	-0.5464   
			2.8750    	1.3750    	-0.1250   	0.3750    	-237.1495 	-260.5140 	257.0093  	-0.0810   	-0.5597   
			2.8750    	1.5000    	-0.1250   	0.5000    	-254.6729 	-264.0187 	257.0093  	-0.0883   	-0.5730   
			2.8750    	1.6250    	-0.1250   	0.6250    	-272.1963 	-267.5234 	257.0093  	-0.0957   	-0.5863   
			2.8750    	1.7500    	-0.1250   	0.7500    	-289.7196 	-271.0280 	257.0093  	-0.1030   	-0.5996   
			2.8750    	1.8750    	-0.1250   	0.8750    	-307.2430 	-274.5327 	257.0093  	-0.1104   	-0.6130   
			2.8750    	2.0000    	-0.1250   	1.0000    	-324.7664 	-278.0374 	257.0093  	-0.1178   	-0.6263   
			3.0000    	0.0000    	0.0000    	-1.0000   	-44.3925  	-221.9626 	250.0000  	0.0000    	-0.3673   
			3.0000    	0.1250    	0.0000    	-0.8750   	-61.9159  	-225.4673 	250.0000  	-0.0084   	-0.3806   
			3.0000    	0.2500    	0.0000    	-0.7500   	-79.4393  	-228.9720 	250.0000  	-0.0168   	-0.3939   
			3.0000    	0.3750    	0.0000    	-0.6250   	-96.9626  	-232.4766 	250.0000  	-0.0252   	-0.4072   
			3.0000    	0.5000    	0.0000    	-0.5000   	-114.4860 	-235.9813 	250.0000  	-0.0336   	-0.4206   
			3.0000    	0.6250    	0.0000    	-0.3750   	-132.0093 	-239.4860 	250.0000  	-0.0421   	-0.4339   
			3.0000    	0.7500    	0.0000    	-0.2500   	-149.5327 	-242.9907 	250.0000  	-0.0505   	-0.4472   
			3.0000    	0.8750    	0.0000    	-0.1250   	-167.0561 	-246.4953 	250.0000  	-0.0589   	-0.4605   
			3.0000    	1.0000    	0.0000    	0.0000    	-184.5794 	-250.0000 	250.0000  	-0.0673   	-0.4738   
			3.0000    	1.1250    	0.0000    	0.1250    	-202.1028 	-253.5047 	250.0000  	-0.0757   	-0.4871   
			3.0000    	1.2500    	0.0000    	0.2500    	-219.6262 	-257.0093 	250.0000  	-0.0841   	-0.5005   
			3.0000    	1.3750    	0.0000    	0.3750    	-237.1495 	-260.5140 	250.0000  	-0.0925   	-0.5138   
			3.0000    	1.5000    	0.0000    	0.5000    	-254.6729 	-264.0187 	250.0000  	-0.1009   	-0.5271   
			3.0000    	1.6250    	0.0000    	0.6250    	-272.1963 	-267.5234 	250.0000  	-0.1093   	-0.5404   
			3.0000    	1.7500    	0.0000    	0.7500    	-289.7196 	-271.0280 	250.0000  	-0.1178   	-0.5537   
			3.0000    	1.8750    	0.0000    	0.8750    	-307.2430 	-274.5327 	250.0000  	-0.1262   	-0.5671   
			3.0000    	2.0000    	0.0000    	1.0000    	-324.7664 	-278.0374 	250.0000  	-0.1346   	-0.5804   
			3.1250    	0.0000    	0.1250    	-1.0000   	-44.3925  	-221.9626 	242.9907  	0.0000    	-0.3214   
			3.1250    	0.1250    	0.1250    	-0.8750   	-61.9159  	-225.4673 	242.9907  	-0.0095   	-0.3347   
			3.1250    	0.2500    	0.1250    	-0.7500   	-79.4393  	-228.9720 	242.9907  	-0.0189   	-0.3480   
			3.1250    	0.3750    	0.1250    	-0.6250   	-96.9626  	-232.4766 	242.9907  	-0.0284   	-0.3613   
			3.1250    	0.5000    	0.1250    	-0.5000   	-114.4860 	-235.9813 	242.9907  	-0.0379   	-0.3746   
			3.1250    	0.6250    	0.1250    	-0.3750   	-132.0093 	-239.4860 	242.9907  	-0.0473   	-0.3880   
			3.1250    	0.7500    	0.1250    	-0.2500   	-149.5327 	-242.9907 	242.9907  	-0.0568   	-0.4013   
			3.1250    	0.8750    	0.1250    	-0.1250   	-167.0561 	-246.4953 	242.9907  	-0.0662   	-0.4146   
			3.1250    	1.0000    	0.1250    	0.0000    	-184.5794 	-250.0000 	242.9907  	-0.0757   	-0.4279   
			3.1250    	1.1250    	0.1250    	0.1250    	-202.1028 	-253.5047 	242.9907  	-0.0852   	-0.4412   
			3.1250    	1.2500    	0.1250    	0.2500    	-219.6262 	-257.0093 	242.9907  	-0.0946   	-0.4546   
			3.1250    	1.3750    	0.1250    	0.3750    	-237.1495 	-260.5140 	242.9907  	-0.1041   	-0.4679   
			3.1250    	1.5000    	0.1250    	0.5000    	-254.6729 	-264.0187 	242.9907  	-0.1136   	-0.4812   
			3.1250    	1.6250    	0.1250    	0.6250    	-272.1963 	-267.5234 	242.9907  	-0.1230   	-0.4945   
			3.1250    	1.7500    	0.1250    	0.7500    	-289.7196 	-271.0280 	242.9907  	-0.1325   	-0.5078   
			3.1250    	1.8750    	0.1250    	0.8750    	-307.2430 	-274.5327 	242.9907  	-0.1419   	-0.5211   
			3.1250    	2.0000    	0.1250    	1.0000    	-324.7664 	-278.0374 	242.9907  	-0.1514   	-0.5345   
			3.2500    	0.0000    	0.2500    	-1.0000   	-44.3925  	-221.9626 	235.9813  	0.0000    	-0.2755   
			3.2500    	0.1250    	0.2500    	-0.8750   	-61.9159  	-225.4673 	235.9813  	-0.0105   	-0.2888   
			3.2500    	0.2500    	0.2500    	-0.7500   	-79.4393  	-228.9720 	235.9813  	-0.0210   	-0.3021   
			3.2500    	0.3750    	0.2500    	-0.6250   	-96.9626  	-232.4766 	235.9813  	-0.0315   	-0.3154   
			3.2500    	0.5000    	0.2500    	-0.5000   	-114.4860 	-235.9813 	235.9813  	-0.0421   	-0.3287   
			3.2500    	0.6250    	0.2500    	-0.3750   	-132.0093 	-239.4860 	235.9813  	-0.0526   	-0.3421   
			3.2500    	0.7500    	0.2500    	-0.2500   	-149.5327 	-242.9907 	235.9813  	-0.0631   	-0.3554   
			3.2500    	0.8750    	0.2500    	-0.1250   	-167.0561 	-246.4953 	235.9813  	-0.0736   	-0.3687   
			3.2500    	1.0000    	0.2500    	0.0000    	-184.5794 	-250.0000 	235.9813  	-0.0841   	-0.3820   
			3.2500    	1.1250    	0.2500    	0.1250    	-202.1028 	-253.5047 	235.9813  	-0.0946   	-0.3953   
			3.2500    	1.2500    	0.2500    	0.2500    	-219.6262 	-257.0093 	235.9813  	-0.1051   	-0.4086   
			3.2500    	1.3750    	0.2500    	0.3750    	-237.1495 	-260.5140 	235.9813  	-0.1157   	-0.4220   
			3.2500    	1.5000    	0.2500    	0.5000    	-254.6729 	-264.0187 	235.9813  	-0.1262   	-0.4353   
			3.2500    	1.6250    	0.2500    	0.6250    	-272.1963 	-267.5234 	235.9813  	-0.1367   	-0.4486   
			3.2500    	1.7500    	0.2500    	0.7500    	-289.7196 	-271.0280 	235.9813  	-0.1472   	-0.4619   
			3.2500    	1.8750    	0.2500    	0.8750    	-307.2430 	-274.5327 	235.9813  	-0.1577   	-0.4752   
			3.2500    	2.0000    	0.2500    	1.0000    	-324.7664 	-278.0374 	235.9813  	-0.1682   	-0.4886   
			3.3750    	0.0000    	0.3750    	-1.0000   	-44.3925  	-221.9626 	228.9720  	0.0000    	-0.2296   
			3.3750    	0.1250    	0.3750    	-0.8750   	-61.9159  	-225.4673 	228.9720  	-0.0116   	-0.2429   
			3.3750    	0.2500    	0.3750    	-0.7500   	-79.4393  	-228.9720 	228.9720  	-0.0231   	-0.2562   
			3.3750    	0.3750    	0.3750    	-0.6250   	-96.9626  	-232.4766 	228.9720  	-0.0347   	-0.2695   
			3.3750    	0.5000    	0.3750    	-0.5000   	-114.4860 	-235.9813 	228.9720  	-0.0463   	-0.2828   
			3.3750    	0.6250    	0.3750    	-0.3750   	-132.0093 	-239.4860 	228.9720  	-0.0578   	-0.2961   
			3.3750    	0.7500    	0.3750    	-0.2500   	-149.5327 	-242.9907 	228.9720  	-0.0694   	-0.3095   
			3.3750    	0.8750    	0.3750    	-0.1250   	-167.0561 	-246.4953 	228.9720  	-0.0810   	-0.3228   
			3.3750    	1.0000    	0.3750    	0.0000    	-184.5794 	-250.0000 	228.9720  	-0.0925   	-0.3361   
			3.3750    	1.1250    	0.3750    	0.1250    	-202.1028 	-253.5047 	228.9720  	-0.1041   	-0.3494   
			3.3750    	1.2500    	0.3750    	0.2500    	-219.6262 	-257.0093 	228.9720  	-0.1157   	-0.3627   
			3.3750    	1.3750    	0.3750    	0.3750    	-237.1495 	-260.5140 	228.9720  	-0.1272   	-0.3761   
			3.3750    	1.5000    	0.3750    	0.5000    	-254.6729 	-264.0187 	228.9720  	-0.1388   	-0.3894   
			3.3750    	1.6250    	0.3750    	0.6250    	-272.1963 	-267.5234 	228.9720  	-0.1504   	-0.4027   
			3.3750    	1.7500    	0.3750    	0.7500    	-289.7196 	-271.0280 	228.9720  	-0.1619   	-0.4160   
			3.3750    	1.8750    	0.3750    	0.8750    	-307.2430 	-274.5327 	228.9720  	-0.1735   	-0.4293   
			3.3750    	2.0000    	0.3750    	1.0000    	-324.7664 	-278.0374 	228.9720  	-0.1850   	-0.4426   
			3.5000    	0.0000    	0.5000    	-1.0000   	-44.3925  	-221.9626 	221.9626  	0.0000    	-0.1836   
			3.5000    	0.1250    	0.5000    	-0.8750   	-61.9159  	-225.4673 	221.9626  	-0.0126   	-0.1970   
			3.5000    	0.2500    	0.5000    	-0.7500   	-79.4393  	-228.9720 	221.9626  	-0.0252   	-0.2103   
			3.5000    	0.3750    	0.5000    	-0.6250   	-96.9626  	-232.4766 	221.9626  	-0.0379   	-0.2236   
			3.5000    	0.5000    	0.5000    	-0.5000   	-114.4860 	-235.9813 	221.9626  	-0.0505   	-0.2369   
			3.5000    	0.6250    	0.5000    	-0.3750   	-132.0093 	-239.4860 	221.9626  	-0.0631   	-0.2502   
			3.5000    	0.7500    	0.5000    	-0.2500   	-149.5327 	-242.9907 	221.9626  	-0.0757   	-0.2636   
			3.5000    	0.8750    	0.5000    	-0.1250   	-167.0561 	-246.4953 	221.9626  	-0.0883   	-0.2769   
			3.5000    	1.0000    	0.5000    	0.0000    	-184.5794 	-250.0000 	221.9626  	-0.1009   	-0.2902   
			3.5000    	1.1250    	0.5000    	0.1250    	-202.1028 	-253.5047 	221.9626  	-0.1136   	-0.3035   
			3.5000    	1.2500    	0.5000    	0.2500    	-219.6262 	-257.0093 	221.9626  	-0.1262   	-0.3168   
			3.5000    	1.3750    	0.5000    	0.3750    	-237.1495 	-260.5140 	221.9626  	-0.1388   	-0.3301   
			3.5000    	1.5000    	0.5000    	0.5000    	-254.6729 	-264.0187 	221.9626  	-0.1514   	-0.3435   
			3.5000    	1.6250    	0.5000    	0.6250    	-272.1963 	-267.5234 	221.9626  	-0.1640   	-0.3568   
			3.5000    	1.7500    	0.5000    	0.7500    	-289.7196 	-271.0280 	221.9626  	-0.1766   	-0.3701   
			3.5000    	1.8750    	0.5000    	0.8750    	-307.2430 	-274.5327 	221.9626  	-0.1893   	-0.3834   
			3.5000    	2.0000    	0.5000    	1.0000    	-324.7664 	-278.0374 	221.9626  	-0.2019   	-0.3967   
			3.6250    	0.0000    	0.6250    	-1.0000   	-44.3925  	-221.9626 	214.9533  	0.0000    	-0.1377   
			3.6250    	0.1250    	0.6250    	-0.8750   	-61.9159  	-225.4673 	214.9533  	-0.0137   	-0.1511   
			3.6250    	0.2500    	0.6250    	-0.7500   	-79.4393  	-228.9720 	214.9533  	-0.0273   	-0.1644   
			3.6250    	0.3750    	0.6250    	-0.6250   	-96.9626  	-232.4766 	214.9533  	-0.0410   	-0.1777   
			3.6250    	0.5000    	0.6250    	-0.5000   	-114.4860 	-235.9813 	214.9533  	-0.0547   	-0.1910   
			3.6250    	0.6250    	0.6250    	-0.3750   	-132.0093 	-239.4860 	214.9533  	-0.0683   	-0.2043   
			3.6250    	0.7500    	0.6250    	-0.2500   	-149.5327 	-242.9907 	214.9533  	-0.0820   	-0.2176   
			3.6250    	0.8750    	0.6250    	-0.1250   	-167.0561 	-246.4953 	214.9533  	-0.0957   	-0.2310   
			3.6250    	1.0000    	0.6250    	0.0000    	-184.5794 	-250.0000 	214.9533  	-0.1093   	-0.2443   
			3.6250    	1.1250    	0.6250    	0.1250    	-202.1028 	-253.5047 	214.9533  	-0.1230   	-0.2576   
			3.6250    	1.2500    	0.6250    	0.2500    	-219.6262 	-257.0093 	214.9533  	-0.1367   	-0.2709   
			3.6250    	1.3750    	0.6250    	0.3750    	-237.1495 	-260.5140 	214.9533  	-0.1504   	-0.2842   
			3.6250    	1.5000    	0.6250    	0.5000    	-254.6729 	-264.0187 	214.9533  	-0.1640   	-0.2975   
			3.6250    	1.6250    	0.6250    	0.6250    	-272.1963 	-267.5234 	214.9533  	-0.1777   	-0.3109   
			3.6250    	1.7500    	0.6250    	0.7500    	-289.7196 	-271.0280 	214.9533  	-0.1914   	-0.3242   
			3.6250    	1.8750    	0.6250    	0.8750    	-307.2430 	-274.5327 	214.9533  	-0.2050   	-0.3375   
			3.6250    	2.0000    	0.6250    	1.0000    	-324.7664 	-278.0374 	214.9533  	-0.2187   	-0.3508   
			3.7500    	0.0000    	0.7500    	-1.0000   	-44.3925  	-221.9626 	207.9439  	0.0000    	-0.0918   
			3.7500    	0.1250    	0.7500    	-0.8750   	-61.9159  	-225.4673 	207.9439  	-0.0147   	-0.1051   
			3.7500    	0.2500    	0.7500    	-0.7500   	-79.4393  	-228.9720 	207.9439  	-0.0294   	-0.1185   
			3.7500    	0.3750    	0.7500    	-0.6250   	-96.9626  	-232.4766 	207.9439  	-0.0442   	-0.1318   
			3.7500    	0.5000    	0.7500    	-0.5000   	-114.4860 	-235.9813 	207.9439  	-0.0589   	-0.1451   
			3.7500    	0.6250    	0.7500    	-0.3750   	-132.0093 	-239.4860 	207.9439  	-0.0736   	-0.1584   
			3.7500    	0.7500    	0.7500    	-0.2500   	-149.5327 	-242.9907 	207.9439  	-0.0883   	-0.1717   
			3.7500    	0.8750    	0.7500    	-0.1250   	-167.0561 	-246.4953 	207.9439  	-0.1030   	-0.1850   
			3.7500    	1.0000    	0.7500    	0.0000    	-184.5794 	-250.0000 	207.9439  	-0.1178   	-0.1984   
			3.7500    	1.1250    	0.7500    	0.1250    	-202.1028 	-253.5047 	207.9439  	-0.1325   	-0.2117   
			3.7500    	1.2500    	0.7500    	0.2500    	-219.6262 	-257.0093 	207.9439  	-0.1472   	-0.2250   
			3.7500    	1.3750    	0.7500    	0.3750    	-237.1495 	-260.5140 	207.9439  	-0.1619   	-0.2383   
			3.7500    	1.5000    	0.7500    	0.5000    	-254.6729 	-264.0187 	207.9439  	-0.1766   	-0.2516   
			3.7500    	1.6250    	0.7500    	0.6250    	-272.1963 	-267.5234 	207.9439  	-0.1914   	-0.2650   
			3.7500    	1.7500    	0.7500    	0.7500    	-289.7196 	-271.0280 	207.9439  	-0.2061   	-0.2783   
			3.7500    	1.8750    	0.7500    	0.8750    	-307.2430 	-274.5327 	207.9439  	-0.2208   	-0.2916   
			3.7500    	2.0000    	0.7500    	1.0000    	-324.7664 	-278.0374 	207.9439  	-0.2355   	-0.3049   
			3.8750    	0.0000    	0.8750    	-1.0000   	-44.3925  	-221.9626 	200.9346  	0.0000    	-0.0459   
			3.8750    	0.1250    	0.8750    	-0.8750   	-61.9159  	-225.4673 	200.9346  	-0.0158   	-0.0592   
			3.8750    	0.2500    	0.8750    	-0.7500   	-79.4393  	-228.9720 	200.9346  	-0.0315   	-0.0725   
			3.8750    	0.3750    	0.8750    	-0.6250   	-96.9626  	-232.4766 	200.9346  	-0.0473   	-0.0859   
			3.8750    	0.5000    	0.8750    	-0.5000   	-114.4860 	-235.9813 	200.9346  	-0.0631   	-0.0992   
			3.8750    	0.6250    	0.8750    	-0.3750   	-132.0093 	-239.4860 	200.9346  	-0.0789   	-0.1125   
			3.8750    	0.7500    	0.8750    	-0.2500   	-149.5327 	-242.9907 	200.9346  	-0.0946   	-0.1258   
			3.8750    	0.8750    	0.8750    	-0.1250   	-167.0561 	-246.4953 	200.9346  	-0.1104   	-0.1391   
			3.8750    	1.0000    	0.8750    	0.0000    	-184.5794 	-250.0000 	200.9346  	-0.1262   	-0.1525   
			3.8750    	1.1250    	0.8750    	0.1250    	-202.1028 	-253.5047 	200.9346  	-0.1419   	-0.1658   
			3.8750    	1.2500    	0.8750    	0.2500    	-219.6262 	-257.0093 	200.9346  	-0.1577   	-0.1791   
			3.8750    	1.3750    	0.8750    	0.3750    	-237.1495 	-260.5140 	200.9346  	-0.1735   	-0.1924   
			3.8750    	1.5000    	0.8750    	0.5000    	-254.6729 	-264.0187 	200.9346  	-0.1893   	-0.2057   
			3.8750    	1.6250    	0.8750    	0.6250    	-272.1963 	-267.5234 	200.9346  	-0.2050   	-0.2190   
			3.8750    	1.7500    	0.8750    	0.7500    	-289.7196 	-271.0280 	200.9346  	-0.2208   	-0.2324   
			3.8750    	1.8750    	0.8750    	0.8750    	-307.2430 	-274.5327 	200.9346  	-0.2366   	-0.2457   
			3.8750    	2.0000    	0.8750    	1.0000    	-324.7664 	-278.0374 	200.9346  	-0.2523   	-0.2590   
			4.0000    	0.0000    	1.0000    	-1.0000   	-44.3925  	-221.9626 	193.9252  	0.0000    	0.0000    
			4.0000    	0.1250    	1.0000    	-0.8750   	-61.9159  	-225.4673 	193.9252  	-0.0168   	-0.0133   
			4.0000    	0.2500    	1.0000    	-0.7500   	-79.4393  	-228.9720 	193.9252  	-0.0336   	-0.0266   
			4.0000    	0.3750    	1.0000    	-0.6250   	-96.9626  	-232.4766 	193.9252  	-0.0505   	-0.0400   
			4.0000    	0.5000    	1.0000    	-0.5000   	-114.4860 	-235.9813 	193.9252  	-0.0673   	-0.0533   
			4.0000    	0.6250    	1.0000    	-0.3750   	-132.0093 	-239.4860 	193.9252  	-0.0841   	-0.0666   
			4.0000    	0.7500    	1.0000    	-0.2500   	-149.5327 	-242.9907 	193.9252  	-0.1009   	-0.0799   
			4.0000    	0.8750    	1.0000    	-0.1250   	-167.0561 	-246.4953 	193.9252  	-0.1178   	-0.0932   
			4.0000    	1.0000    	1.0000    	0.0000    	-184.5794 	-250.0000 	193.9252  	-0.1346   	-0.1065   
			4.0000    	1.1250    	1.0000    	0.1250    	-202.1028 	-253.5047 	193.9252  	-0.1514   	-0.1199   
			4.0000    	1.2500    	1.0000    	0.2500    	-219.6262 	-257.0093 	193.9252  	-0.1682   	-0.1332   
			4.0000    	1.3750    	1.0000    	0.3750    	-237.1495 	-260.5140 	193.9252  	-0.1850   	-0.1465   
			4.0000    	1.5000    	1.0000    	0.5000    	-254.6729 	-264.0187 	193.9252  	-0.2019   	-0.1598   
			4.0000    	1.6250    	1.0000    	0.6250    	-272.1963 	-267.5234 	193.9252  	-0.2187   	-0.1731   
			4.0000    	1.7500    	1.0000    	0.7500    	-289.7196 	-271.0280 	193.9252  	-0.2355   	-0.1864   
			4.0000    	1.8750    	1.0000    	0.8750    	-307.2430 	-274.5327 	193.9252  	-0.2523   	-0.1998   
			4.0000    	2.0000    	1.0000    	1.0000    	-324.7664 	-278.0374 	193.9252  	-0.2692   	-0.2131   